H	Extractor	mgf2FT
H	m/z	Intensity	Resolution	Baseline	Noise	Charge
H	Instrument Model	NA
S	1476805	1476805	198.12342834472656
Z	1	198.12342834472656
57.06984828	49.00833511	0	0	0	0
60.08117294	197.4033508	0	0	0	0
60.10103775	37.5625	0	0	0	0
68.05090491	40.00961685	0	0	0	0
82.99693864	72.00961304	0	0	0	0
94.44668524	31.28409004	0	0	0	0
95.06001812	310.3076782	0	0	0	0
95.07827227	54.125	0	0	0	0
129.0870275	50	0	0	0	0
137.1279365	125.0054321	0	0	0	0
139.0526121	35	0	0	0	0
141.0675269	55.0625	0	0	0	0
154.1316563	204.1893921	0	0	0	0
154.3141251	40.66666794	0	0	0	0
155.1330612	42.08333206	0	0	0	0
155.1458851	33.5625	0	0	0	0
178.9406904	39.26666641	0	0	0	0
198.1224579	223.9619598	0	0	0	0
198.1535288	42.54166794	0	0	0	0
199.1233767	31.1607151	0	0	0	0
S	1198881	1198881	161.09220886230469
Z	1	161.09220886230469
I	RetentionTime	1198.873
53.0389084	198.1039734	0	0	0	0
55.01906017	837.8405762	0	0	0	0
57.03419991	699.4453735	0	0	0	0
61.0284704	738.7617188	0	0	0	0
69.03380049	1850.019165	0	0	0	0
69.05703805	182.6918945	0	0	0	0
73.03225272	156.9387817	0	0	0	0
81.03544888	160.408905	0	0	0	0
82.99723799	120.6050034	0	0	0	0
84.04636273	724.6500244	0	0	0	0
85.02827912	2962.177979	0	0	0	0
85.04660464	395.0227356	0	0	0	0
97.02881648	556.9266357	0	0	0	0
99.04473668	183.7347565	0	0	0	0
101.0215982	295.1871643	0	0	0	0
109.0332544	168.1139221	0	0	0	0
115.090686	174.2906647	0	0	0	0
127.0402091	314.0856018	0	0	0	0
144.0679243	397.7710876	0	0	0	0
161.0900551	143.4381104	0	0	0	0

